Transmission rate explicitly defined as it changes, innoculation rate varies from 1 to 95 in the list, but are not explicitly stated for ease of copying and pasting
45
44.0333
41.8667
42.7333
38
42.4667
36.5
35.8667
32.9
36.1667
34.4333
31.8333
37.0333
32.5667
33.4333
32.6667
31.7
32.8
29.9667
30.1
30.8667
27.4333
26.9667
28.5333
27.3
27.3667
23.1333
27.3667
26.3333
25.5
26.6667
23.3
23.3
20.2333
22.1
20.8
20.9333
22.1
18.3667
19.7667
19.1
19
18.3667
19.5333
16.1
17
15.1333
14.1
16.3333
17
15.3667
16.4333
14
14.4333
14
13.1333
13.7667
12.6
13.0333
11.7667
11.3
9.46667
10.8667
10.1333
9.2
9.6
7.9
8.33333
9.26667
7.96667
8.66667
7.63333
6.96667
6.63333
6.63333
5.8
5.76667
5.63333
5.73333
5.36667
4.83333
4.53333
5.16667
3.93333
3.86667
2.83333
3.26667
2.9
2.53333
2.16667
2.06667
1.96667
1.5
1.13333
0.766667
162
155.7
156.933
154.7
148.233
151.167
136.833
127.4
133.3
128.267
118.767
117.767
113.7
115.2
106.467
103.433
106.1
99.6667
101.2
87.4667
95.1667
84.8667
86.0333
84.8333
83.8
80.6333
83.3333
80.9
71.4333
74.1
74.5
69.2333
65.4
67.7667
61.7667
59.2
59.1667
56.7
55.4667
55.1333
52.6333
49.5
52.1
47.4667
49.6333
44.0667
41.1
40.2667
39.7
38.1667
38.3
37.6
36.6
33.5333
35.5
32.8667
29.4333
29.4333
29.0667
27.9333
28.4667
27.3667
24.4
22.4667
19.9667
22.3333
21.2
18.9667
18.0333
18.8667
16.4333
16.2667
17.2667
14.1333
15.0333
14
13.2333
11.7
11.3667
11.5
11.0333
9.86667
8.26667
8.9
7.5
6.76667
6.13333
5.46667
4.73333
5.76667
4.36667
3.53333
2.66667
2.53333
2.43333
491.7
461.2
459.2
442
430.767
390.167
379.967
361.167
358.967
338.7
317.133
327.467
299.067
281.567
280.667
274.067
270.6
245
241.667
233.367
222.9
228.833
217.7
208.033
187.1
172.6
168.233
166.667
167.867
156.133
141.333
148.233
142.833
138.467
133.267
115.667
121.5
116
114.7
111.367
103.933
95.9667
97.8667
97.1667
86.5333
84.7
83.5
76.0667
76.7667
70.1
69.5
72.3
61.5
59.9
62.0333
59.3667
55.8333
55.2
52.2667
51.2333
45.4333
47.8333
42.3333
43
36.8667
38.6667
35
35.5333
29.9333
32
27.1
28.0333
26.3
24
25.4
24.2333
21.2667
21.1333
17.5
17.6333
15.4
13.7333
14.1333
12.3
10.9667
10.5333
10.0667
9.43333
7.76667
6.23333
6.46667
5.56667
4.96667
3.73333
2.76667
1258.73
1216.37
1111.27
1066.17
1046.23
989.9
877.5
852.3
807.4
760.233
757.367
659.833
649
632.833
607.133
565.867
537.6
515
491.667
459.5
458.9
406.733
391.7
397.233
357.333
361.7
343.333
332.867
303.067
285.333
265.267
273.467
248.9
244.933
237.667
240.9
209.467
208.5
193.133
186.933
185.6
161.133
165.633
161.2
151.8
140.267
136.033
125.2
132
118.8
116.767
105.3
98.6667
100.133
93.7
87.5667
84.6333
83.0667
80.2
74.9
73.5667
69.3333
61.2667
58.7333
56.4333
54.5667
50.8
51.4667
45.9
43.6333
42.2667
42
36.9333
35.4667
31.4333
32.0667
29.8667
29.4667
27.2667
24.1333
22.4667
22.0667
19.3333
17.7667
15.4667
15.2333
14.2333
11.2333
10.6333
9.76667
7.93333
6.7
6.1
5.03333
4.23333
2702.87
2518.4
2413.8
2206.7
2133
1987.4
1825.7
1720.07
1649.1
1539.07
1465.2
1286.7
1310.9
1153.33
1109.27
1022.5
958.167
906.033
875.467
809.167
766.533
749.633
723.833
680.8
624.767
606.767
542.967
530.367
498.333
470
450.8
428.333
422.2
388.233
375.9
356.667
327.7
317.167
300.1
291.3
275.167
254.533
247.8
238.433
232.933
215.5
195.433
189.967
175.9
175.333
173.5
157.467
157
147.033
134.667
129.8
123.733
114.767
110.133
106.667
99.7
93.0333
89.5667
83.7667
84.0667
77
74.3333
68.9
68.5
60.3333
54.7333
52.8667
50.1
48.6333
46.9667
39.2
37.6667
34.2333
34.8667
31.0333
31.0667
26.8333
23.0333
22.1333
21.3333
21.2333
16.2333
16.5667
12.8667
12.2667
10.1333
10
7.26667
6.5
5.23333
5112.7
4800.83
4176.27
3976.7
3726.4
3530
3213.93
2955.03
2776.47
2517.47
2500.8
2176.3
2106.6
1895.77
1868
1750.33
1597.37
1506.8
1398.87
1293.53
1199.4
1172.7
1155.13
1043.47
968.5
946.867
856.167
788.767
763.967
722.233
692.133
649.1
624.467
578.767
548.633
516.2
494.433
478.633
430.233
415.767
391.3
356.5
347.967
352.567
298.6
305.867
279.667
262.733
246.533
244.667
238.367
212.7
198.833
195.433
189.567
162.9
168.367
148.633
151.3
142.133
125.8
133.8
117.433
112.9
101.967
91.6333
95.2
93.8667
85.4
71.3
74
66.6667
63.8333
59.2333
57.7333
52.2
48.6667
44.4
39.3
37.6333
31.9333
31.6667
28.0333
23.7667
24.9667
22.5333
20.7333
17.6
14.3667
14.9667
12.9667
11.0333
8.33333
7.16667
5.8
7536.67
6925.2
6633.27
6029
5769.63
5408.8
4992.4
4616.97
4294.43
3894
3680.57
3510.97
3161.23
2979.67
2710.23
2617.33
2413.33
2157.53
2133.7
1968.53
1847.53
1673.7
1570.07
1483.53
1462.87
1351.97
1242.07
1131.47
1106.67
1047.23
943.9
944.067
846.833
793.967
751.133
713.933
659.367
624.4
583.367
545.167
525.033
490.267
452.867
444.833
406.2
382.833
387.167
352.667
326.2
303.333
292.167
288.6
263.1
244.833
226.633
213.1
203.533
192.933
175.7
167.533
156.833
153.9
145.333
141.6
125.267
120.767
110.967
108.3
99
89.4333
78.6
79.5
77.5667
71.4333
62.9667
57.3333
58.9667
52.6333
52.7
48.8333
40.3333
38.4
38.3667
32.4667
29.6
25.4
23.3667
20.1667
18.0667
15.8333
14.6
11.1
9.8
8.16667
6.6
8924.23
8653.4
8312.2
7748.83
7502.47
7122.23
6419.37
5991.3
5748.57
5493.27
5028.33
4560.63
4219.87
4046.17
3709.47
3445.3
3204.23
3063.5
2941.87
2594.57
2427.97
2350.47
2133.2
1981.63
1833.4
1779.77
1644.2
1509.2
1400.5
1335.17
1187.53
1152.83
1107.07
1014.6
939.4
842.867
856.167
800.4
749.033
722.833
658.367
599.4
558.367
561.3
496.533
487.2
458.167
422.767
390.833
373.733
345.6
335.467
309.467
294.467
286.267
258.7
242.333
236.5
227.3
202.9
198.467
180.1
180.4
157.1
146.5
148.433
140.833
125.467
122.367
108.6
102.233
95.5333
90.6
84.3333
80.9
71.1
68.2
63.4667
56
50.1
47.3
43.3667
39.9667
36.9667
33.9667
29.9
25.6
23.9333
22.3667
17.3667
16.1333
14.0333
11
8.53333
6.66667
9637.63
9368.07
9089
8807.67
8451.5
8218.67
7810.13
7488.7
7093.63
6569.87
6232.3
5883.77
5493.87
4993.23
4726.73
4375.13
4034.1
3799.67
3509.1
3232.8
3066.33
2797.73
2654.5
2510.23
2314.7
2135.4
2063.73
1860.53
1737.13
1653.17
1565.03
1495.17
1353.83
1247.1
1177.63
1073.53
1008.97
979.033
900.433
830.967
812.6
718.267
723.533
658.933
619.7
598
544.3
514.3
486.8
452.4
436.033
417.3
370.633
351.267
344.067
296.167
295.5
278.4
258.767
243.567
226.8
204.6
190.633
190.8
173.5
163.367
154.633
139.1
134.067
133.8
120.467
108.433
98.9
97.6
90.4667
83.0667
72.3
71.4333
63.9
60.1667
54.6333
51.2
44.3667
40.1
37.6
34.1333
30.1333
26.5
22.4667
18.3333
17.3333
14.6333
11.7333
10.4333
8.4
9804.07
9618.97
9498.8
9304.9
9193.77
8828.27
8537
8156.6
7929.13
7499.03
7261.7
6843.13
6259.3
6121.53
5583.6
5215.63
5027.87
4540.6
4164.73
3907.77
3665.5
3440.27
3309.13
2940.93
2791.2
2637.77
2484.23
2271.6
2104.77
1976.63
1845.1
1683.07
1619.93
1497.5
1420.8
1335.37
1156.77
1136.63
1076.83
1028.6
940.433
890.5
826.833
779.733
735.467
664.933
634.767
606.7
546.4
538.967
485.767
474.067
428.167
399.733
369.367
361.967
343.5
307.6
297.667
279.233
266.967
243.7
227.133
203.433
197.033
175.733
181.5
163.4
147.267
143.4
129.367
124.467
123.533
100.133
99.3333
91.4
83.7
77.9333
72.8667
66.7667
58.6333
54.2667
50.9667
43.8
41.5667
36.0333
35.0333
28.6
26.0333
20.8667
20.3333
16.3
13.6667
11.0333
9.16667
9828.6
9660.77
9590.03
9431.17
9328.1
9015.27
8794.5
8740.57
8293.33
7957.23
7793.63
7569.03
7214.8
6507.17
6438.53
5752.6
5551.13
5180.97
4999.23
4523.33
4378.47
4098.8
3655.67
3492.63
3248.8
3009.37
2875.1
2615.5
2413.53
2296.23
2166.63
1960.8
1876.2
1690.03
1612.13
1547.23
1380.83
1347.03
1213.1
1128.67
1080.97
1036.07
971.267
865.967
798.967
789.067
732.7
687.667
629.333
608.767
552.6
510.233
483.967
453.033
423.7
381.233
376.867
363.633
327.6
299.733
285.733
280.6
253.133
239.533
220.867
200.967
191.133
180.1
164.6
152.933
142.267
141.767
120.133
116.8
107
100.833
92.1333
88.2
82.9333
68.2667
66.2333
62.9
53.1667
48.9333
44.1333
39.3333
34.9
31.8
26.9
23.6667
21.4333
17.2667
14.2
11.3333
8.86667
9830.67
9741.7
9642.27
9529.67
9256.8
9225.53
9045.8
8814.6
8482.27
8598.23
8139.57
7908.97
7553.5
7232.13
6979.67
6320.23
6242.57
5918.67
5656.67
5110.37
4708.23
4362.97
4272.77
3877.07
3690.1
3470.23
3179.73
3048.3
2772.57
2585.67
2414.8
2304
2118.37
1931.73
1868.6
1681.1
1577.7
1492.3
1364.5
1297.97
1208.57
1131.33
1095.7
980.667
951.067
886.267
803.567
769.467
686.933
639.267
609.6
581.467
538.533
499.7
478.167
436.4
411.867
389.2
368.933
338.433
320.533
305.867
275.533
259.567
251.8
218.867
203.333
195.933
171
171.7
159.933
146.6
140.667
127.167
119.733
108.867
97.4
91.4333
90.6333
74.6
68.6333
66.6
55.4667
51.2
49.1
41.6
38
34.1667
28.4
24.5667
22.0667
17.6333
15.2333
12.4333
9.03333
9846.07
9748.77
9649.67
9525.57
9443.03
9305.93
9220.73
9038.73
8803.13
8606.7
8442.37
8262.03
7865.13
7802.23
7281
6969
6232.67
6375.13
5962.37
5465.7
5105.37
5046.27
4493.27
4242.4
3956.47
3714.87
3609.93
3233
3021.33
2909.53
2716.9
2550.27
2320.1
2150.07
2039.47
1885.43
1771.2
1649.33
1565.4
1415.3
1358.43
1277.8
1183.37
1100.1
1001.5
976.833
895.933
800.867
797.567
728.467
696.133
647.867
611.733
556.733
512.133
482.3
462.9
422.2
386.333
373.033
351.767
328.1
311.767
282.7
262.1
244.733
216.567
216.267
207.667
178.8
178.233
158.5
152.333
135.333
127.067
120.9
107.733
99.5333
89
80.4667
72.3667
70.9333
63.7333
57.7333
49.0333
46.8667
41.1667
34.3
30.7667
25.6
24.6
16.3667
16.9333
12.1667
9.66667
9849
9750.4
9653.33
9535.2
9443.67
9344.37
9219.63
9137.5
8842.63
8772.3
8660.47
8450.2
8179.23
7819
7686.47
7459
7017.33
6308.5
6388.1
5912.2
5420.07
5377.07
4944.97
4515.77
4218.03
4072.93
3884.93
3705.93
3361.8
3186.07
2913.27
2779.7
2627.73
2390.53
2272.37
2058.37
1968.6
1786.2
1733.43
1604.47
1464.9
1351.37
1280.2
1187.5
1100.23
1066.87
947.333
904.133
837.433
823.833
739.5
669.767
647.667
595.9
551.267
529.7
482.233
466.667
411
401.8
369.167
341.533
321.567
291.2
279.833
260.733
237.133
230.7
202.867
197.667
183.067
175.167
158.833
143.833
135.167
126.233
115.667
109.4
98.5333
85.4
78.1
74.7
66.6
58.7667
55.4
47.9
45.6
35.9333
34.4333
28.7
23.9
20.1
18.6667
13.2
10.8
9849.93
9751.33
9654.6
9558.03
9462.67
9367.47
9262.93
9128.87
8979.83
8869.73
8654.1
8575
8420.4
8078.07
7891.23
7564.2
7343.7
6966.47
6345.53
6203.23
5856.63
5544.03
5318.5
4742.23
4524.2
4347.33
4064.9
3865.9
3543.47
3371.27
3106.2
2903.77
2816.53
2522.1
2409
2299.6
2108.37
1964.3
1775.33
1712.67
1591.4
1465.77
1378.23
1270.07
1215.3
1132.03
1008.93
981.2
894.3
876.533
754.3
744.933
680.2
656.467
580.4
574.733
523.233
487.6
459.767
401.2
397.533
365.2
344.267
320.133
300.667
277.933
267.1
237.733
220.433
203.433
192.733
187.533
164.8
160.2
146.333
131.767
125
105.3
100.367
95.8
83.1333
78.3333
66.7667
60.8333
55.2333
53.3667
44.7
39.7333
34.7667
30.4667
24.9667
20.9667
16.6
14.0667
10.7
9850.33
9752.57
9655.3
9559
9464.2
9344.43
9256.43
9158.2
8954.63
8913.4
8832.7
8637
8348.37
8177.57
7929.8
7801.97
7340.47
7263.6
6636.57
6360.07
6165.07
5783.67
5460.23
5327.83
4951.9
4492.3
4207.47
4053.07
3772.5
3462.53
3274.37
3180.97
2970.63
2766.03
2584.53
2396.43
2183.33
2044.6
1968.17
1791.57
1669.37
1557.83
1501.57
1337.23
1305.5
1151.93
1110.23
1015.97
929.2
920.4
844.433
787.467
733.567
676.233
608.067
595.233
553.433
510.467
473.9
447.367
410.3
387.433
348.367
344.967
301.433
301.533
264.033
257.667
236.733
223.067
196.2
182.133
179.833
159.667
150.533
142.167
129
112.833
106.467
98.5333
88.6667
83.8667
71.9667
65.8333
57.5667
50.3667
47
41
37.5667
33.7
28
22.2
19.0667
14
12
9850.93
9752.93
9655.63
9550.9
9465.23
9370.07
9275.6
9186.1
9013
8886.47
8787.5
8726.37
8550.5
8269.3
8271.03
7773.37
7713.9
7439.53
7323
6623.87
6435.9
6003.37
5788.77
5453.9
5182.17
4747.3
4527.8
4422.8
3929.33
3712.67
3521.9
3170.4
3083.2
2896.4
2559.47
2478.7
2356.4
2188.93
2003.23
1921.6
1779.27
1634.53
1580.4
1453.6
1426.87
1202.37
1162.53
1122.83
990.367
913.8
887
794.033
747.867
717.833
671.933
639.233
590.333
547.6
512.233
471.367
435.733
425.633
384.433
359.433
315.933
307.467
281.8
258.833
236.267
220.233
215.267
194.067
183.767
158.7
154.3
138.4
126.967
123.333
108.6
102.367
93.6
81.9
74.8667
68.1
62.2333
55.8667
48.0667
41.6333
34.4333
34.2
27.5667
21.5667
18.1667
13.9333
11.5
9850.97
9753.07
9655.8
9559.5
9465.13
9371.5
9242.2
9131.87
9093.53
8985.5
8908.67
8653.97
8534.37
8533.53
8080.27
8007.77
7873.13
7414.63
6925.93
6888.77
6688.13
6322.73
5962.83
5369.5
5251.63
4956.2
4653.03
4395.77
4274.53
3985
3749.43
3368.9
3111.57
3015.6
2840.97
2672.6
2491.8
2350.67
2166.8
2079.2
1843.23
1737.9
1600.63
1537.57
1410.87
1312.23
1220.07
1139.03
1083.3
951.4
901.2
847.367
786.267
742.767
713.067
652.933
618.833
578.6
533.6
484.9
446.467
419.733
384.767
359.267
345.833
318.533
295.9
277.467
251.267
237.233
228.433
199.167
194.133
177.5
161.233
149.033
138
123.567
112.067
106.667
92.7667
88.5333
78.0667
68.9333
66.3667
57.2667
47.7
47.0333
39.5333
33.1
27.4667
23.9667
18.9333
15.4667
11
9851.23
9752.7
9655.83
9560.4
9465.27
9370.43
9258.13
9161.43
9095.07
8966.83
8906.83
8774.6
8571.4
8424.97
8362.4
7725.67
7611.07
7766.23
7268.67
7255.23
6631.13
6389.93
6169.77
5884.17
5510.37
5188.73
4842.6
4503.83
4302.5
4008.97
3809.73
3452.77
3416.87
3078.5
3015.53
2747.8
2601.97
2365.53
2191
2131.7
1916.67
1859.7
1721.23
1526.63
1460.97
1302.7
1267.23
1216.7
1136.13
1026.7
972.433
927.867
847.5
801.433
696.367
677.167
630.933
563.433
544.267
513.367
470.433
424.5
416.4
373.767
371.3
325.7
315.367
285.1
272.133
247.133
229.867
208.4
199
181.233
162.5
152.033
135.467
128
117.067
110.033
99.6333
86.8333
80.4
68.8667
61.3333
59.4333
52.2667
45.3
41.8
34.6
29.3667
23.6667
19.5667
16.4667
11.4
9851.13
9752.93
9655.83
9559.43
9464.33
9368.1
9276.27
9139.17
9095.37
9002.63
8879.37
8731.8
8720.63
8463.93
8438.37
8166.77
7953.33
7512.33
7695.27
7371.47
6853.1
6578.57
6379.43
5612.97
5414.87
5300.43
4998
5044.6
4527.67
4044.97
3984.1
3777.47
3511.87
3246.33
3073.67
2855.4
2620.63
2463.9
2272
2208.8
2048.2
1896.7
1707.97
1684.07
1529.5
1410.63
1354.1
1269.97
1160.3
1088.47
981.967
927.233
913.633
819.033
761.1
725.8
673.133
617.233
574.1
515.267
493
449.433
435.1
400.7
377.733
351.1
324.567
287.633
274.933
258.667
230.467
220.3
196.1
185.6
169.333
154.9
145
136.433
120.4
104.733
98.2
92
80.6
73.2
66.1667
59.9
51.5667
45.1
41.3
35.9
29.4667
24.1667
20.2333
16.3667
12.6
9851.23
9752.93
9655.47
9559.53
9465.07
9370.63
9278.47
9162.23
9095.1
8956.5
8793.67
8772.2
8578.97
8543.33
8159.2
8243.33
8054.43
7841.17
7503.67
7477.7
6992.13
6694.4
6502.27
6239.67
5752.37
5219.23
5104.7
4719.7
4463.6
4250.97
3995.5
3856.87
3580.33
3245.43
3042.73
2980.33
2701.8
2592.37
2378.07
2194.57
2124.93
2011.1
1806.5
1687.23
1579.37
1479.87
1379.07
1298.53
1235.97
1110.9
1079.8
969.133
911.567
832.933
783.4
741.033
704.3
625.033
603.5
552.533
501.033
479.867
449.7
409.967
386.933
342.967
331.133
316.1
275.7
256.867
243.933
218.767
209.633
182.833
176
166.033
152.833
134.433
125.633
118.167
102.733
90.2667
83.2667
74.1
67.3
62.7667
55.8667
47.3333
38.5
37.3
28.6333
25.3333
20.4
16.6333
12.2333
9851
9753.7
9656.07
9559.03
9465.97
9370.73
9278.03
9186.13
9062.6
8966.07
8917.7
8791.17
8691.6
8417.67
8212.77
8198.83
8097
8164.2
7656.93
7490.27
6912.67
6666.77
6509.3
6546.4
5901.67
5626.97
5254.27
4919.1
4820.9
4319.8
3951.17
3894.1
3685.1
3386.33
3242.43
2997.9
2840.1
2599.4
2475.33
2340.57
2162.3
2034
1838.87
1783.87
1612.8
1473.4
1380.73
1342
1227.23
1180.93
1066.5
994.3
918.833
850.267
814.067
751.5
709.633
655.833
597.733
592.567
527.833
486.867
455.933
410.4
397.467
363.333
337.567
320.833
283.9
262.667
250.733
225.9
205.867
192.067
178.633
166.7
156.033
142.467
126.033
116.733
106.233
97.1333
85.6333
74.5667
71.3333
63.1
56.7
50
40.6333
35.4
31.6333
24.7
22.3333
16.8
13.7333
9851.1
9753.37
9656.6
9560.2
9464.47
9371.97
9277.73
9186.33
9063.77
9003.47
8872.97
8809.77
8735.73
8609.5
8440.6
8249.27
8250.23
7784.47
7838.33
7138
7294.67
7293.4
6407.9
6314.87
6117.93
5948.5
5500.57
5153.7
4568.33
4461.3
4358.17
3940.8
3790.63
3542.17
3338.2
3061.43
2864.3
2698.5
2551.83
2453.47
2253.53
2002.9
1910.77
1809.6
1689.27
1556.5
1451.87
1360.2
1276.73
1163.13
1082.1
1051
965.633
891.5
839.467
778.233
712.533
675.467
640.2
584.133
529.033
495.233
462.8
408.9
400.833
365.467
344.433
313.033
296.967
286.933
254.067
239.233
213.967
203
181.033
172.6
152.367
145.633
129.5
117.867
112.8
101.3
86.6
81.9333
70.9667
61.2333
57.0333
49.1667
43.3667
40.4667
30.5667
27.1667
22.0667
16.9333
12.7333
9851.47
9753
9656.03
9560.23
9466.2
9371
9277.93
9186.83
9062.83
9004.8
8882.97
8798.1
8740.43
8556.03
8452.77
8264.23
7981.17
7864.63
7796.8
7758.4
7348.77
7131.83
6808.13
6873.03
6391.5
5428.9
5683.47
5147.5
4623.83
4773.1
4195.57
4020.63
3867.13
3575.57
3399.43
3139.9
2956.97
2820.93
2610.77
2431.2
2211.63
2138.63
2062.6
1909.37
1734.8
1578
1454.37
1431.5
1336.1
1227.33
1136.8
1106.77
975.5
887.567
847.067
791.5
753.967
667.167
631.833
591.567
568.6
534.067
485.2
434.733
409.5
382.9
364.5
327.2
312.567
277.8
267.233
252.067
227.3
209.267
193.633
162.833
163.5
143.733
133.8
123.3
106.233
103.633
94.9667
82.6667
77.7333
63.4333
58.1333
50.3333
45.9667
38.3
32.3667
29.1333
21.4
19.1333
14.1333
9851.17
9753.47
9655.87
9560.17
9464.53
9372.03
9277.67
9185.8
9067.27
8949.17
8910.63
8800.83
8741.13
8564.17
8486.8
8325
8287.87
7926.83
7865.7
7535.2
7393.47
6936.3
6648.57
6506.07
6178.77
5849.7
5568.73
5417.73
4930.43
4505.37
4497.17
4229.9
4002.13
3572.03
3384.73
3227.2
3079
2789.77
2642.53
2521.1
2357.97
2224.47
2064.93
1887.07
1800.53
1676.47
1533.77
1462.07
1355.17
1251.17
1156.47
1108.97
1003.93
937.867
871.567
830.867
748.933
709.333
653.233
603.133
567.767
532.233
481.567
449.2
408.733
392.2
360.8
326.2
305.867
278.9
268.567
246.4
223.4
206.067
187.667
175.3
160.767
155.367
129.867
127.267
110.133
105.433
96.5333
80.0667
72.8333
68.1
57.7
51.5333
45.2
41.2
34.8
27.1667
22.2667
17.4333
14.6667
9851.07
9753.1
9656.27
9560.57
9465.77
9371.03
9277.9
9185.77
9073
9007.07
8913.9
8829.2
8740.13
8589.3
8448.07
8407.5
8090.8
8107.63
7697.5
7663.63
7296.27
7288.33
6693.4
6685.7
6103.47
6194.33
6015.7
5311.27
5291.9
4778.8
4716.07
4139.53
3894.53
3726.4
3499.6
3220.9
3032.23
2797.87
2648.33
2503.2
2387.13
2233.03
2009.87
1921.7
1806.8
1698.4
1557.63
1430.27
1337.7
1271.73
1205.43
1077.17
1033.03
943.833
904.1
824.667
790.167
709.3
640.433
629.967
590.8
515.433
502.433
468.033
423.933
394.8
365.633
344.1
320.167
295.867
264.1
261.233
233.467
218.767
198.867
175.433
162.233
150.233
139.133
130.733
120.9
105.6
97.2
84.2333
76.7667
68.6667
58.2333
55.5667
46.7333
41.3333
29.7
23.8
22.8333
17.0333
14.8333
9851.13
9753.17
9655.83
9560.2
9450.93
9346.37
9278.57
9187.23
9097.1
9006.37
8879.77
8826.87
8671.3
8646.8
8533.13
8341.97
8229.63
7899.63
7936.73
7743.13
7343.5
7252.77
6833.1
6531.2
6346.27
6461.27
5773.83
5635.53
4941.67
4795.83
4460.63
4394.53
4142.2
3864.53
3541.3
3318.27
3116.47
2934.93
2751.6
2602.77
2392.67
2286.73
2128.1
1970.47
1892
1730.87
1594.5
1564.7
1468.9
1283.73
1230.03
1101.37
1066.67
984.033
890.967
835.8
782.3
713.367
684.2
628.6
582.033
537.167
520.367
470.167
428.733
412.567
366
350.6
312.667
304.5
267.567
248.9
235.167
212.4
202.4
184.4
165.9
155.6
139.233
128.167
110.133
105.833
98.8333
83.0667
76.8333
67
61.3333
51.7333
48.1667
39.3
33.7667
28.6333
25.8
17.7333
13.6667
9851
9753.57
9656.5
9559.87
9465.5
9370.67
9248.13
9185.67
9064.67
9004.43
8916.5
8828
8693.8
8569.43
8460.7
8343.73
8301.3
8147.67
7665.4
7581.57
7575.47
7205.57
6943.27
6962.17
6707.27
6128.47
5628.13
5738.3
5188.77
4805.3
4599.13
4464.77
4313
3994.7
3602.97
3453.07
3128.57
2901.37
2803.8
2522.17
2398.07
2236.2
2086.43
2025.93
1898.67
1748.7
1625.53
1547.73
1424.03
1305.63
1197.8
1130.43
1089.9
990.5
920.867
855.067
814.367
739.9
708.5
637.933
602.5
578.5
498
461.733
439.533
414.6
378.133
354.667
333.8
300.967
285.167
263.5
240.8
218.9
194.767
182.4
178.1
156.1
137.967
129.533
110.867
103.967
97.1333
90.3667
79.2
70.9
62.4667
54.9333
48.2
41.6
32.8667
29.4
22.3
19.7
14.2333
9850.9
9752.73
9657.2
9559.43
9465.63
9370.37
9278.57
9186.93
9096.1
8977.6
8915
8716.87
8661.27
8640.77
8431.87
8352.5
8350.53
8159.93
7820.93
7542.3
7350.2
7124.7
6952.73
7100.1
6697.53
6263.03
6095.47
5395.23
5453.3
5320.47
4620.77
4423.97
3955.4
3667.8
3769.37
3630.93
3122.73
2995.1
2882.1
2610.53
2480.37
2312.17
2145.2
2002.8
1943.83
1802.67
1623.93
1534.9
1451.1
1353.43
