Transmission rate explicitly defined as it changes, innoculation rate varies from 1 to 95 in the list, but are not explicitly stated for ease of copying and pasting
44.0667
40.2
38.6333
39.8667
39.7333
35.6333
38.1
37.5
39.5
34.8
34.3
39.4333
31.7667
33.0333
34.0667
31.0667
31.6667
29.9
29.5333
30.0333
32.8
31.6
27.0333
27.0667
28.2667
26.1333
25.5
23.2333
25.1667
23.7
23.1
23.4667
23
23.6667
21.5
21.3
22.3333
20.6667
21.1667
19.0333
21.1
18.9
18.4
19.4667
16.2667
15.4667
17.2667
16.2667
15.0333
14.2333
12.5
15.3
14.6333
14.3333
13.9667
11.6333
12.9333
12.2333
12.3
12.4333
11.0667
10.0667
8.9
10.3333
10.9
8.8
9.36667
8.9
7.93333
9
7.56667
7.66667
7.6
7.36667
7.1
6.3
5.83333
6.26667
4.93333
5.43333
5.4
4.3
4.4
4.13333
3.56667
4
2.8
3.5
2.26667
2.23333
1.8
2.16667
1.4
1.2
0.666667
175.967
158.933
153.3
149.967
154.867
148.6
135.4
134.433
126.467
124.167
124.033
116.5
111.633
118.933
112.7
112.167
107.2
101.267
104.033
97.6
99.3333
87.9333
93.5
83.3667
84.9667
78.7333
75.6333
71.1667
75.9
69
72.9
69.2667
58.8333
63.4
63.0333
58.1333
56.3
61.7
54.6333
51.8667
46.3
49.6667
47
48.8
47.5667
45.3
41.6667
39.3667
38.3
38.2333
36
37.8667
35.7333
34.9333
32.6
32.8
27.6333
30.5333
29.4333
27.8
25.2667
26.4333
26.6333
22.2
22.1333
22.5
22.7333
21.5333
19.1
18.0333
17.8667
17.7333
16.4667
16.2333
14.2
12.3667
14.6333
13.0333
11.2333
10.2
9.86667
10.2333
9
8.06667
7.73333
7.26667
7
5.46667
5.26667
4.76667
3.46667
3.23333
2.76667
2.46667
2.03333
490.7
475.1
431.667
435.6
425.733
407.433
390.267
364.167
348.833
344.5
325.6
311.467
314.867
304.9
271.533
251.667
250.967
257.367
244.467
242.3
220.567
231.933
213.833
193.1
186.233
177.567
174.667
180.667
165.367
148.133
153.667
145.933
144.467
145.967
130.2
127.867
116.133
117.733
103.533
102.833
109.333
100.333
95.1333
92.5333
94.4333
83.0333
73.2
77.9
74.0667
78.9333
69.7333
64.7667
65.0333
60.2667
61.8
56.7
53.8667
56.2
48.3333
47.5667
46.6667
45.0667
43.9333
42.7333
37.6667
38.3
35.5333
31.4667
33.0333
31.5333
29
29.2667
26.1667
23.6333
23.7667
24.5
21
18.6667
17.4
16.4667
16.1333
15.7333
12.7333
13.4667
11.4
9.4
10.7
8.36667
7.9
7.9
6.03333
4.56667
4.33333
3.33333
3.16667
1340.53
1179.3
1143.33
1071.7
1009
977.567
941.233
849.9
835.133
773.167
745.967
682.667
672.9
591.267
594.4
565.7
556.533
530.367
492.3
476.733
432.567
420.333
408.733
414.267
362.133
343.7
345.967
322.1
309.967
311.333
279.633
276
246.4
247.067
231.433
222.867
215.2
203.2
191.267
187.8
187.033
162.567
165.133
162.267
147.3
154.567
135.3
132.967
123.6
123.667
112.867
109.967
107.667
97.6333
92.7667
95
81.2333
80.8
81.6333
75.9667
70.0667
62.6
63.4667
61.5
57.5667
51.3333
50.5
51.8667
50.4
43.6667
42.5
39.0667
38.1667
34.3333
32.5
30.8333
27.4
27.2333
26.3667
26.4667
22.4
22.5333
18.1
17.6333
17.2
15.8333
12.7
12.0667
10.1333
9.4
9.3
7.73333
6.7
5.4
4.1
2870.33
2533.87
2449.4
2223.33
2141.13
1904.77
1893.07
1698.37
1553.17
1529.07
1383.23
1300.93
1186.97
1175.33
1103.93
1073.23
972.933
936.9
906.4
863.5
765
748.567
722.667
674.2
620.967
597.067
587.933
528.833
501.367
463.2
464.867
432.467
427.267
387.1
378.633
357.467
358.2
317.167
305.2
293.733
263.3
261.667
242.467
242.267
226.633
213.733
200.767
192.4
188.633
180.233
164.6
160.733
155.4
147.233
137.167
139.1
123.2
114.533
105.333
99.0333
96.3333
95.2
85.1667
80.4333
81.6333
76.5333
76.6
68.7
59.7333
64.2333
55.7
56.4667
52.1
47.7667
46.1
43.1333
37.1667
33.8333
34.9
33.3667
33
26.8333
22.9667
22.4333
20.5
19.1
16.5667
15.4333
12.8
13.6
10.9333
8.8
7.1
5.76667
4.23333
5198.33
4589.23
4394.3
4213
3717.23
3513.67
3277.63
3083.93
2752.4
2708.23
2480.27
2288.27
2136.93
1979.47
1854.27
1776.47
1560.87
1508.63
1430.73
1296.23
1213.83
1163.9
1110.03
1029.93
977.4
952.2
823.8
831.433
780.467
731.9
674.1
659.3
588.933
557
541.7
525.533
485.7
443.333
441.967
423.233
378.7
360.233
361.133
339.8
308.1
294.233
305.1
264.567
250.133
245.367
226.667
210.9
208.2
185.933
177.133
166.233
168.8
153.233
140.9
134
127.567
119
113.633
111.767
101.8
98.5
93.4333
87.9667
84.1667
76.3
71.2
66.6
65.6667
60.2333
55.6
53.3667
45.2
44.2667
41.1333
40.3
36
33.4667
31.4
27.1
25.1667
22.9
19.1
18.2333
16.8333
14.3
12.5333
10.2
8.36667
8.26667
5.73333
7384.7
6991.87
6393.7
6169.9
5593.53
5427.87
4903.8
4707.33
4248.13
4109.2
3605.77
3478.63
3165.37
3015.9
2806.77
2527.13
2368.87
2220.9
2160
1892.6
1830.9
1722.57
1631.23
1421.7
1410.1
1299.1
1239.07
1212.57
1107.97
1005.33
953.3
889.6
856.5
804.167
720.833
686.633
656.067
639.167
595.967
563.233
517.267
499.533
466.233
437.533
424.233
391.8
349.4
348.167
327.3
308.6
292.367
284.433
258.7
256.9
225.6
214.1
200.833
190.633
185.833
173
163.367
153.467
139.733
138.467
126.467
125.433
115.833
106.667
95
90.7333
88.5333
78.8
77.9333
66.4
62.2
60.7667
58.7333
58.0667
49.3333
45.4
39.5333
35.9667
37.5
32.3667
27.9
24.6667
23.7667
19.7333
19.7333
15.5333
13.1667
12.5667
9.43333
8.36667
6.8
9098.03
8772.33
8394.3
7904.17
7222.53
6845.27
6589.27
6153.97
5760.73
5364.87
4932.73
4664.13
4275.1
3816.1
3724.33
3406.33
3182.57
2952.73
2766.63
2618.23
2445.73
2311.17
2069.73
1942.37
1814.47
1710.5
1581.27
1495.27
1454.2
1321.3
1208.53
1154.67
1067.47
1027.1
958.733
906.167
817.533
810.6
759.6
719.267
645.967
628.667
591.1
559.767
509.267
466.833
466.3
427.967
394.8
382.8
375
332.6
325.2
314.933
286.333
270.267
262.633
238.533
225.233
196.9
195.6
184.767
170.1
164.067
155.967
141.833
137.333
126.467
114.4
108.167
103.933
95.3
93.5667
83.2
76.1667
73.5667
69.7667
61.9333
56.8667
53.5333
48.3333
44.7333
37.5
37.9
33.9667
30.7667
26.5333
24.1333
20.5667
19
15.8667
12.8333
12.3333
9.1
7.26667
9575.9
9369.43
9161.1
8787.07
8468.03
8209.8
7844.67
7402.27
7054.33
6476
6186.7
5832.27
5265.6
5108.6
4870.63
4404.17
4166.07
3844.03
3496
3258.13
2994
2755.2
2751.13
2441.53
2371.17
2118.7
1954.4
1866.8
1777.87
1663.77
1549.63
1422.63
1353.37
1292.57
1151.83
1124.37
1043.4
981.733
935.933
883.333
812.367
758.967
699.033
672.233
598.2
567.867
538.167
507.533
505.133
458.7
431.633
391.067
379.533
351.933
322.433
310.5
297.167
283
249.667
244.9
239.933
209.7
207.967
192.4
176.8
164
155.6
139.7
137.867
125.433
116.833
110.667
97.2333
95.5333
90.5333
83.0333
74.4
70.5333
66.8333
60.0333
55.7333
49.5333
45.3
41.2
35.6667
33.4333
28.7333
27.8
22.1667
22.1333
16.9333
14.8333
12.4333
9.9
7.66667
9776.37
9582.7
9384.53
9305.8
9121.37
8905.63
8525.7
8112.73
7675.37
7507.03
7062.13
6925
6400.87
5944.9
5584.3
5165.33
5085.73
4619.63
4237.7
4076.43
3584.1
3382.97
3299.37
2848.07
2768.97
2619.53
2467.17
2331.1
2164.37
2017.1
1861.03
1748.37
1634.47
1458.73
1448.43
1350.93
1199.5
1176
1105.47
967.767
924.833
852.133
803.467
778.9
711.2
652.833
632.5
598.767
555.3
519.7
483.5
452.8
426.567
413.833
378.167
344.033
349.8
313.967
313.633
277.1
249.333
246.6
219.133
219.9
202.5
189.1
170.1
164.667
148.7
142.833
132.933
123.567
116.5
112.5
98.7333
89
89.4
78.4667
73.3667
68.4333
61.8333
53.3333
50.4
43.2667
44.5667
36.9667
32.0667
28.2333
25.8667
22.7667
20.5333
15.3667
13.4667
11.1
9.3
9814.4
9706.27
9588.4
9448.53
9279.6
9126.63
8935.77
8704.93
8299.7
8009.6
7664.87
7378.13
6976.27
6785.8
6422.63
6075.57
5526.13
5035.97
4921.63
4628.83
4348.97
4022.13
3778.43
3498.8
3335.67
3116.2
2785.03
2665.77
2409.77
2290.7
2137.77
2006.17
1852.1
1770.63
1656.93
1498.27
1424.43
1346.1
1247.97
1133.73
1066.87
1048.7
945.867
888.233
816.567
787.7
740.733
704.867
635.367
592.767
568
505.767
498.733
460.267
424.267
387.4
378.9
348.8
324.2
307.667
293.367
274.8
253.033
230
214.367
214.367
189.533
172.133
172.867
155.567
145.333
137.633
129.9
116.867
108.067
102.9
97.6
81.5
75.8
74.5
69.5333
57.5
54.7333
48.1667
46.0333
39.8
33.8
31.7667
27.4667
24.6
21.1333
16.7667
14.4
11.6
9.63333
9842.07
9738.2
9610
9525.63
9407.2
9267.3
9130.07
9053.27
8762.87
8349.4
8173.1
8026.97
7512.47
7131.7
6902.4
6406.2
6031.17
5880.77
5181.47
5072.3
4726.27
4486.5
4226.73
3931.17
3651.73
3334.07
3092.3
2918.2
2777.8
2590.7
2421.27
2275.17
2143.1
1897.7
1786.17
1706.97
1631.9
1503.4
1383.8
1318.63
1203.37
1131.03
1051.43
1033.37
935.333
825.367
797.967
746.9
722.833
638.067
628.633
574.133
540.267
505.333
493.1
442.633
424.167
375.867
381.433
333.8
314.633
298.667
276.167
265.267
248.433
219.733
215.467
194.033
177.633
171.567
158.1
151
132.667
127
112.867
104.1
100.033
93.2667
85.3667
75.7333
73.1333
66.3
58.9
50.9667
50.5
41.0667
36.8333
34.5333
29.2667
24.8333
22.2333
18.8
16.8333
12.9333
9.2
9846.4
9746.53
9649.7
9522.77
9443.03
9305.3
9152.7
8986.93
8825.13
8700.87
8541.4
8114.63
7911.17
7737.87
7384.23
6975.67
6713.9
6179.33
5822.5
5549.93
5297.8
5030.7
4682.63
4317.87
4149.73
3852.03
3564.9
3271.83
3065.77
2939.13
2618.2
2494.77
2373.4
2223.57
2010.13
1912.53
1765.37
1622.2
1523.67
1458.77
1376
1233.87
1152.17
1074
1047.27
947.133
898.3
851.967
790.7
717.867
661.1
632.767
610.167
561.8
530.4
488.133
456.733
426.433
401.333
365.067
342.333
319.933
303.667
275.467
262.567
242.567
217.767
216.2
188.967
174.033
174.6
154.767
148.433
135.433
125.433
117.2
109.867
98.3
89
80.7667
79.1667
68.0667
59.9333
59.4333
49.6333
46.3
43.1333
36.7333
34.7667
25.9
24.5333
19.5
16.3667
13.5
8.93333
9848.67
9749.9
9652.6
9535.43
9441.8
9320.03
9198.23
9081.63
8799.2
8803.83
8706.63
8376.57
8151.67
7784.13
7421.03
7397.63
6935.6
6710.6
6312.5
5801.97
5667.33
5200.43
4888.73
4651.87
4450.3
4019.87
3933.67
3459.37
3280.77
3059.63
2900.23
2711.37
2621.43
2340.07
2207.97
2013.1
1974.1
1778.5
1641.87
1538.63
1472.8
1389.37
1253.67
1179.67
1112.27
1002.4
968.867
898.067
833.3
798.267
737.467
678.7
673.667
608.633
556
503.433
479.433
441.867
434.333
396.467
369.767
358.733
324.167
308.9
280.567
251.333
246.433
218.767
213.567
197.833
174.733
167.567
162.633
142.033
133.5
121.867
109.2
104.4
92.8667
85.5667
79.7667
72.6333
66.3333
57.6667
54.9333
45.5
41.4667
38.3333
33.5667
27.8
25.4
21.8333
17.3667
13.0667
10.6333
9849.77
9751.73
9655.1
9557.67
9462.53
9368.27
9248.5
9125.77
8917.87
8846.57
8753.3
8356.97
8274.27
8087.93
8014.13
7667.03
7234.43
7064.83
6564.93
6193.6
5854.73
5819.77
5372.9
4882.67
4613.37
4261.23
3954.37
3844.33
3480
3263.83
3071.83
2880.13
2726.77
2522.8
2393.43
2207.4
2088.77
1970.83
1837.03
1694.87
1569.83
1457.3
1387.73
1280.63
1170.97
1091.07
977.533
944.967
937.933
866.8
779.867
723.967
698.567
646.367
580.233
550.8
512.433
480.3
457.167
426.033
403.233
373.667
337.867
325.467
295.633
279.8
256.8
245.6
217.167
205.5
190.267
171.733
166.767
151.467
141.433
133.067
119.8
105.4
107.433
94.1
81.3
72.6667
71.2333
61.3333
55.0667
47.4667
44.8667
39.9333
36.9
29.9
24.2333
21.5333
18.0667
14.4333
10.9333
9850.17
9752.17
9655.1
9558.57
9465
9348.57
9237.07
9154.83
8994
8905.23
8688.2
8655.4
8329.5
8126.87
7783.87
7881.53
7455.47
7005.77
6893.4
6553.67
6251.97
5592.77
5273.8
5206.73
4799.67
4503.57
4303.53
4111.17
3761.4
3568.87
3250.13
3148.27
2855.4
2677.4
2584.03
2340.53
2262.57
2082.43
1955
1818.77
1705.1
1552.03
1420.47
1339.33
1260.9
1183.43
1115.83
1021.17
986.667
888.467
842.933
773
720.333
665.7
630.033
588.3
544.533
508.667
481.3
437.767
429.333
377.933
374.967
356
302.2
306.867
258.867
248.3
239.133
210.167
205.333
184.367
170.367
166.9
146.8
137.1
126.833
116.633
107.667
100.667
86.7333
81.4
76.1667
67.8667
58.8667
52.9667
44.9667
42.9333
35.5
31.0333
27
21.2
19.5333
13.6667
11.2333
9851.17
9752.87
9655.47
9559.2
9446.63
9370.8
9276.87
9172.57
9065.7
8818.63
8842.1
8719.23
8613.5
8266.8
8036.47
7712.77
7391.73
7564.2
6889.53
6677.8
6467
5915.37
5966.8
5502.33
5014.93
4686.1
4372.07
4149.83
4118.77
3706.7
3577
3272.7
3143.13
2820.9
2672.27
2485.67
2424.2
2166.53
2035.63
1828.27
1715.43
1635.27
1496.6
1423.97
1312.73
1260
1122.2
1079.73
1024.13
946.7
847.133
833.467
791.933
715.267
659.933
623
565.533
546.633
520.533
471.933
438.533
399.533
381.067
353.667
321
301.933
294.933
267.267
244.3
223.233
208.267
201.4
186.367
171.2
154.2
142.933
128.367
118.7
109.633
99.6
97.9
84.2
71.1
71.6667
61.1333
51.7667
45.4667
41.4667
37.5333
33.5
27.6
24.8333
18.9
16.8
11.6
9851.27
9752.93
9655.6
9558.83
9434.87
9371.1
9257.5
9159.1
9032.53
8985.8
8916.37
8652.17
8623.77
8520.93
8185
7919.93
7679.53
7485.67
7188.03
6939.37
6423.97
6471.8
5714.13
5513.63
5389.03
4850.5
4771.37
4285.43
4096.3
4055.97
3530.43
3335.03
3156.67
2989.87
2829.27
2605.23
2408.43
2327.7
2133.97
1993.4
1869.57
1762.3
1656.7
1518.9
1454.8
1370.03
1182.3
1145.73
1046.87
970.1
918.3
861.767
832.167
752.433
708.433
659.867
602.933
584.7
542.567
486.567
458.1
434.2
400.5
371.067
342.267
326.8
306.033
291.2
251.6
234.533
219.5
195.133
186.267
181.267
166.333
145.033
135.767
122.933
114.8
108.433
95.5
87.6667
76.5
69.0333
64.1667
55.3333
49.9
45.6667
37.8667
32.8
29.3333
24.6333
19.1667
16.1667
11.6667
9850.93
9753.23
9655.7
9559.63
9464.97
9371.2
9257.73
9160.8
9094.93
9001.83
8875.47
8707.17
8599.73
8364
8325.93
8107.47
7946.9
7400.57
7470.13
6686.43
6843.33
6685.97
6399.17
5718.03
5473.03
5378.6
4990.57
4652.3
4179.9
3943.2
3798.7
3517.03
3451.13
3101.07
2889.47
2654.6
2600.67
2414.93
2245.37
2172.57
1968.73
1847.63
1746.23
1572.97
1545.2
1374.23
1258.67
1206.6
1106.4
1062.5
961.6
904.733
849.767
811.5
733.633
677.167
608.867
595.4
572.9
513.933
482.767
451.367
414.833
378
363.633
329.533
303.8
285.567
257.567
244
225.1
213.333
190.4
179.767
163.933
154.833
140.267
127.9
118.733
106.9
97.2333
94.1
86.3667
74.6667
61.9333
56.5333
50.6
45.3667
40
33
27.7667
24.2333
19.1667
16.9667
11.2333
9851
9752.7
9655.6
9559.07
9465.27
9369.9
9238.23
9164.5
9090.6
8974.47
8887.23
8802.9
8645.4
8519.53
8111.83
8179.73
7838.87
7582.2
7576.3
7418.73
6615.17
6697.27
6474.1
6074.37
5630.17
5403.07
4997.57
4825.7
4346.9
4141.37
4066.7
3726.9
3360.17
3178.5
3089.4
2820.27
2616.17
2499.6
2297.37
2150.13
2028.23
1851.1
1781.1
1607.3
1469.7
1412.3
1266.8
1278.43
1179.27
1068.8
980.9
945.2
883.167
819.067
781.7
690.433
667.2
606.267
569.5
535.233
497.367
453.633
417.8
399.7
353.5
332.733
325.633
300.5
275
252.8
244.433
219.7
200.1
190.767
172.7
157.067
146.933
129.667
115.367
113.9
102.7
93
84.2333
72.9
70
58.7667
50.3333
46.4333
39.8
33.5667
28.9333
24.4
20.6667
15.4333
12.2333
9851.3
9753.1
9656.43
9560.77
9465.23
9370.27
9279.2
9112.83
9063.6
8975.63
8839.47
8729.1
8666.63
8408.2
8307.4
8211.8
7806.63
7668.07
7795.93
7221.17
6869.03
6741.23
6451.6
6315.67
5708.57
5290.97
5093.73
4747.23
4933.73
4300.93
4180.33
3563.33
3495.8
3276.6
3119.5
2989.1
2737.17
2642.63
2396.93
2245.5
2136.3
2018.57
1816.87
1706
1614.17
1470.6
1391.67
1309.6
1192.47
1091.57
1044.93
959.267
923.3
843.9
785.7
741.833
694.967
634.567
597.5
553
505.667
500.933
427.933
415.4
400.7
343.2
325.9
313.7
289.867
255.267
241.1
230.5
214.567
191.567
176.567
163.533
156.667
136.067
125.433
113.633
105.867
94.4667
84.2333
77.3333
71
60.4
52.8
45.6333
43.6667
34.8
31.0667
27.8333
20.1333
16.3
13.6667
9850.8
9752.83
9655.1
9561.2
9463.9
9370.13
9277.87
9184.73
9063.5
8966.93
8901.77
8811.4
8690.27
8605.83
8227.57
8286.17
8077.77
7863.97
7607.87
7275
7035.97
6702.23
6652.67
6322.8
5956.07
5880.7
5301.33
4998.03
4784.9
4348.7
4275.87
3837.5
3639.97
3489.8
3202.07
3074.4
2827.9
2630.5
2519.7
2276.97
2093.13
1958.2
1889
1717.2
1652.4
1523.87
1420.33
1335.97
1212.4
1176.17
1050.8
1013.13
911.833
872.8
783.333
708.7
708.767
658.533
614.133
565.1
529.2
487.2
448.367
429.533
397.133
349.9
341.2
315.5
290.067
268.367
234.8
240.933
213.833
192.9
186.433
175.7
157.7
144.033
127
116.167
98.6667
102.767
94.7
78.1333
71.4
65.4333
57.3667
47.7667
44.6
37.1333
29.0333
27.2
20.6
17.7333
13.1333
9850.97
9752.9
9654.9
9560.8
9464.53
9370.57
9279.33
9185.77
9095.53
9004.27
8917.2
8789.8
8650.3
8610.5
8280.33
8141.13
8057.63
7996
7718.8
7497.73
7167.97
7335.67
6708.9
5925.8
6510.37
5490.4
5406.27
4988.27
4792.97
4527.87
4193.87
3906.17
3669.33
3617.43
3140.47
3016.17
2816.93
2714.67
2516.2
2342.2
2232.73
2041.27
1911.33
1841.13
1706.47
1560.57
1478.1
1322.2
1285.3
1201.97
1107.5
1016.77
957.667
863.233
801.933
774.033
711.7
672.867
639.567
584.9
543.2
511.367
465.433
429.467
403.133
368.3
338.367
326.7
298.1
275.367
266.367
241.4
211.667
199.6
191.167
173.5
155.367
140.6
131.567
122.933
108.1
102.9
87.6333
80.5
76.6
63.7667
55.5
50.1333
43.9333
36.6333
32.8
25.9
20.1
18.4333
12.7667
9851.3
9752.93
9656.03
9560.03
9465.4
9370.27
9275.2
9186
9003.9
9003.3
8851.43
8788.73
8688.4
8597.83
8426.57
8275.3
8125.73
7948.4
7716.6
7451.13
7498.93
6986.07
6442.73
6645.27
6160.07
5766.03
5204.33
5024.77
4782.87
4526.6
4225.8
4088.53
3769.17
3594.3
3303.37
3144.5
2941.77
2714.2
2611.97
2467.6
2249.73
2175.07
1943.5
1819.8
1760.07
1543.27
1482.37
1392.1
1308.9
1228.6
1134.2
1055.27
955.833
910.4
865.633
781.833
713.667
649.8
656.9
576.167
560.633
510.5
504.3
441.767
412.533
393.3
367.2
320.733
307.533
285.4
262.067
244.567
221.9
205.867
181.467
172.533
161.067
145.133
136.267
125.267
113.833
102.933
94.9
77.0333
75.7667
59.3333
55.0333
50.5333
45.2667
39.8667
33.1667
26
23.2
19.5667
14
9850.97
9752.97
9656.3
9560.1
9464.9
9372.13
9279.1
9156.93
9094.27
8992.93
8917.1
8790.67
8736.3
8560.77
8421.43
8328.03
8167.83
7682.2
7720.5
7228.4
7360.83
7091.83
6987.1
6693.5
5977.17
5699.83
5559.77
5734.17
5122.37
4622.77
4272.17
4026.43
3894.27
3556.2
3398.83
3213.13
3028.3
2800.87
2700.17
2525.23
2299.67
2177.57
2042.9
1850.93
1779.6
1674.97
1551.33
1483.83
1326.13
1196.8
1138.47
1063.8
1026.73
943.367
879.667
763.767
755.5
702.367
649.767
608.733
567.8
538.5
491.767
451.967
413
396.3
366.233
339.367
319.3
272.133
267.367
242.133
221.367
219.3
189.067
175.5
156.7
148.1
135.167
131.567
112.5
103.233
93.2667
81.1667
73.9667
68.3
60.0333
53.7667
46.2667
38.2333
31.9
29.4333
21.8333
17.4333
13.0667
9851.17
9753.87
9655.83
9559.5
9465.97
9370.6
9277.9
9187.63
9094.83
9005.27
8917.1
8733.1
8612.27
8478.43
8425.07
8414.3
8249.43
8074.23
7617.47
7550.9
7850.3
7329.27
7059.6
6846.23
6625.87
6076.7
5741.53
5513.37
5134.13
4812.67
4770.33
4394.3
3903.83
3704.03
3321.03
3220.07
3095.87
2936.7
2658.93
2495
2395.37
2214.73
2061.47
1888.23
1842.97
1694.47
1579.43
1435.63
1354.37
1267.93
1176.03
1126.5
1016.63
949.9
900.467
827.833
788.933
695.233
679.9
614.867
568.533
512.2
488.467
460.867
411.133
391.733
376.633
352.1
324.9
284.2
272.433
247.6
224.833
214.067
196.133
177.567
169.367
158.5
141.267
123.7
114.2
100.667
93.2667
87.2667
75.6667
66.7
59.7
50.0667
48.2667
41.8667
34.6667
27.9
24.1667
16.0667
14
9851.13
9752.93
9656.13
9558.8
9465.5
9371.2
9279.27
9185.33
9094.07
9005.17
8917.17
8827
8560.63
8619.57
8492.37
8226.8
8222.73
8059.43
7926.47
7605.17
7517.67
6963.43
7003.37
6766.57
6170.23
5963.03
6182.9
5679.03
4992.27
5151.57
4568.1
4228.33
4082.27
3709.3
3597.87
3229.53
3135.03
2935.47
2764.53
2567.93
2459.23
2326.9
2109.43
1942.6
1833.53
1764.37
1633.2
1511.43
1399.87
1343.67
1223.3
1136.87
1017.73
986.1
927.467
801.433
789.7
732.867
676.267
625.967
573.1
532.533
498.633
456.5
453.667
410.633
386.967
344.033
326.267
294.533
270
253.233
244.433
209.467
211.033
183.467
162.9
150.533
143.333
128.367
111.567
110.133
95.3
86.8667
79.6667
68.2333
58.9
53.4333
43.9
39.8667
32.3
29.7667
22.6333
18.8333
12.4667
9851.1
9752.97
9656.53
9560.03
9465.33
9370.1
9279.7
9186.2
9094.67
9005.7
8916.63
8828.8
8713.5
8653.97
8573.7
8390.97
8268.67
7985.17
7887.13
7671
7406.97
7465.27
6800.3
6665.43
6775.07
5954.73
5666.47
5600.17
5214.27
4991.5
4668.1
4362.27
4052.37
3696.43
3644.4
3368.63
3169.4
3004.53
2756.13
2570.6
2514.57
2271.5
2062.27
2002.03
1846.9
1754.57
1600.97
1503.6
1398.77
1348.07
1223.67
1131.9
1061.23
997.767
916.3
870.767
779.267
716.533
693.733
665.767
618.1
561.367
514.867
487.833
430.233
409.633
369.033
358.933
323.3
311.3
270.267
252.367
236.367
219.267
199.4
180.233
176.233
153.9
144.233
125.833
116.5
107.333
93.9667
86.3
75.2333
67.7
64.2
55.4667
44.5333
39.7333
35.1333
28
24.6667
19.2333
12.9667
9851.27
9753.13
9656.87
9559.77
9467
9371.9
9279.23
9186.1
9060.97
8975.63
8917.77
8828.1
8657.5
8618.23
8472.4
8442.13
8124.83
7928.9
7920
7809.5
7608.1
7234.9
6920.03
6937.73
6524.6
6280.7
5854.53
5821.03
5280.5
4804.93
4792.67
4275.8
4209.33
3837.3
3780.6
3305.2
3196.2
2996.33
2779.77
2743
2501.73
2327.2
2212.77
1992.67
1900.37
1745.37
1693
1558.17
1454.43
1305.83
1223
1214.4
1102.67
1038.8
