Transmission rate explicitly defined as it changes, innoculation rate varies from 1 to 95 in the list, but are not explicitly stated for ease of copying and pasting
40.6
42.0667
40.5333
39.5667
36.1667
38.6333
38.2
39.0667
36.8
37.3667
36.4667
34.0667
33.6
32.7667
33.5
33.6667
29.1667
30.9
29.7667
31.4333
27.7
29.6
28.6333
25.7
27.9333
26.4333
25.8333
25.8
22.6333
25.1333
24.0333
23.8667
21.8667
23.2333
22.9
22.5667
20.5667
19.6
21.2
20.1333
18.4333
18.1
17.6333
17
18.0667
17.3
17.5
18.2667
17
15.6667
14.3
16.0333
14.3
14.1333
14.0667
13.7
12.8333
12.0333
11.2667
11.3
10.6
10.4667
9.93333
9.43333
8.93333
10
8.1
8.53333
7.13333
8.76667
8.3
8
7
7.83333
6.33333
5.7
6.1
6.13333
5.76667
5.06667
5.4
4.73333
4.6
4.06667
3.63333
3.7
3.83333
3.2
2.23333
2.03333
2.33333
2.03333
1.5
1.13333
0.9
155.167
155.133
151.333
143.6
148.467
146.8
141.033
132.667
132.933
119.367
130.2
118.033
115.7
112.633
106.833
104.867
103.433
98.3
99.8333
90.1667
97.4333
93.2333
90.4667
84
83.8
84.8
78.0667
77.4667
76.5667
75.3333
70.8333
61.0667
66.7667
62
58.1667
58.1333
56.8667
57.2667
57.2
50.1
53.4333
50.9333
49.4667
48.0333
48.9667
42.9667
45.2333
42.9
39.9333
38.0667
38.3667
38.3
35.6
35.6
31.5667
31.2
31.3
31.8
27.4667
27.7667
28.1333
26.1667
24.7
22.3667
23.9
20.8
21.2333
21.1667
19.6333
19.2667
18.4
17.5333
16.1333
14.6333
15.2333
14.0333
11.2
13.4333
11.6
11.6667
10.3333
9.13333
9.06667
8
8.16667
6.93333
6.53333
6.3
5.43333
5.1
3.86667
3
3.83333
2.83333
2.13333
460.4
487.267
482.033
443.767
417.233
394.333
380.9
372.567
356.333
337.333
330.7
311.4
283.6
287
295.233
277.433
260.567
240.333
240.9
232.6
224.633
208.433
201.767
191.2
192.467
180.6
175.733
167.667
164.7
160.067
156.9
143.1
133
134.267
130.733
122.133
124.367
122.9
105.867
108.367
108.4
102.167
95
91.9667
87.1667
84.0333
86.5667
78.4333
77.8667
74.7667
65.5667
67.4
67.8667
64.7333
61.9333
58.4667
51.4
54
48.7667
51
45.0333
45.1667
45.7667
43.6333
38.4667
38
32.0333
30.6667
34.1333
31.1667
29.6667
28.6333
23.5667
24.8667
23.4333
20.1667
21.7667
20.3
18.1667
15.9667
14.5333
15.6667
12.7
13.8
11.6667
11.6333
10.6
9.1
7.86667
6.96667
5.3
5.5
4.76667
3.63333
3.06667
1246.67
1179.13
1097.7
1058.57
1017.5
927.767
918.7
840.133
822.6
775.133
760.167
693.767
657.667
613.333
607.167
567.167
540.767
482.367
493.867
452.233
442.567
403.567
413.767
388.667
358.833
340.633
339.333
304.633
296.867
290.867
282.633
258.933
248.633
247.6
228.9
235.033
216.6
206.7
199.433
194.933
175.367
174.4
170
157.933
151.633
138.967
133
131.8
125.167
125.7
110.233
102.2
101.3
102.733
92.6
89.6333
86.5667
86.6667
76.9667
76.6
76.1
72.8
65.5667
58.5333
58.2667
58.7667
53.5
51.0333
47.2667
49.8
44.9667
42.3
35.3667
38
33.9333
33.1
29.0333
27.2
26.0333
24.7667
23.5
22.7
19.3
18.3333
14.8333
16.3667
13.5667
12.1333
11.4667
9.86667
8.83333
7.4
5.3
4.83333
3.83333
2630.83
2520.87
2404.9
2220.77
2137.3
1975.93
1809.13
1706.7
1607.03
1526.83
1440.93
1353.53
1243.97
1165.57
1141.9
1051.07
1011.6
927.2
905.733
798.933
789.967
746.567
696.3
667.433
671.767
588.8
594.367
533.133
504.033
469.233
451.6
423.833
399.233
404.567
376.4
318.533
352.433
328.433
308.3
276.867
263.567
263.7
261.233
223.1
225.767
217.767
206.667
190.533
189.833
171.4
168.933
153.767
146.767
139.533
133.333
131.4
119.967
116.467
108.6
105.667
99.2
95.4667
87.7667
86.1
78.7667
75.2667
74.3667
65.8333
61.7667
56.8667
56.7333
53.7333
50.2
44.9667
45.1333
40.4
36.1667
33.0667
33.9333
31.6
26.7333
25.8
25.7667
23.2667
21.0667
18.8
15.7333
16.0333
13.5
11.1
11.2333
9.46667
6.5
5.46667
5.86667
4909.87
4774
4338.2
3945.37
3757.4
3420.23
3149.37
2998.67
2870.13
2623.23
2474.6
2246.53
2075.4
1931.37
1809
1734.1
1578.33
1538.87
1459.5
1333.1
1239.3
1137.57
1063.43
1065.37
988.2
933.767
825.067
796.233
751.433
735.933
705.733
659.567
652.667
569.433
561.433
515.4
484.4
469.867
432.3
415.067
387.533
365.3
345.067
331.333
314.633
293.633
284.567
261.067
250.8
223.7
221.633
218.667
202.7
195.333
182.233
170.2
160.733
157.733
160.333
134.133
127.833
124.033
116.833
112.233
97.7667
103.767
92.0333
82.9333
81.9333
77.8
75.4667
67.4333
58.9333
56.4333
52.7333
49.9
46.1333
43.6
42.1333
39.5333
39
33.9
27.0667
28.3667
25.2
21.1333
22.8667
17.6333
16.8333
13.7
12.1
10.3333
8.23333
7.53333
5.53333
7693.63
7001.1
6584.2
6198.1
5649.63
5421.13
4990.17
4742.93
4215.3
3997.37
3608.23
3332.97
3128.9
2918.6
2742.13
2414.8
2363.93
2267.9
2034.97
1870.73
1805.1
1710.93
1535.73
1495.3
1416.23
1336.57
1227.03
1125.03
1079.97
1027.87
961.2
855.467
860.467
775.567
738.733
698.8
646
598.833
611
564.4
496.133
482.267
446.867
435.133
426.5
374.567
366.233
361.4
334.033
321.467
288.433
292.767
257.967
251.033
226.4
220.667
204.6
193.8
182.4
175.467
159.667
157.367
146.833
137.333
130.8
123.467
108.5
110.067
97.6
93.6333
84.6333
81.3667
75.6
70.4667
63.0333
63.6
55.8667
52.7333
49.0667
48.6333
41.7
38.2
32.5
32.5
28.7667
24.4
24.2667
20.5667
19.7333
17.5
15.3333
10.7333
10.1333
7.93333
6.16667
8936.6
8674.23
8282.77
7858.83
7326.87
7036.47
6443.07
5988.67
5743.17
5358.53
4891.13
4632.43
4174.17
3992.53
3694.57
3478.2
3225.23
3051.53
2853.47
2667.37
2529.87
2256.77
2082.93
1991.63
1871
1725.1
1600.13
1542.93
1447.67
1328.97
1249.03
1201.3
1117.77
1013.23
1003.4
925.067
817
806.3
717.2
722.367
669.933
616.767
570.5
533.667
504.4
470.767
455.933
417.367
411.933
374.333
354.567
331.2
324
297.1
276.133
273.5
257
240.7
229.2
196.7
193
170.7
175.933
168.367
155.267
142.767
133.367
126.5
116.633
108.233
107.7
95.8
90.6333
88.1333
81.4667
68.4667
65.7667
58.5667
56.4333
54.1
46.7667
44.4333
40.8333
37.2
32.2
29.6667
24.5
24.2667
21.7667
19.7333
15.0667
13.2667
12
9.5
7.7
9612.3
9390.2
9094.77
8876.67
8500.17
7981.6
8069.3
7355.57
7059.77
6407.23
6191.83
5681.07
5382.43
5003.03
4633.27
4410.47
4142.5
3893.43
3594.23
3298.43
2963.03
2878.27
2726.03
2527.47
2310.77
2142.7
2032.33
1870.27
1774.07
1701.23
1524.47
1471.93
1367.7
1224.63
1227.6
1088.63
1050.2
970.533
879.133
877.433
764.7
737.433
710.9
675.8
629.167
590.467
552.633
526.067
504.4
459.5
430.867
397.767
366.133
352.267
338.833
316.9
289.533
277.733
264.933
242.967
217.067
219.2
208.167
186.8
175.567
162.2
160.467
138.067
127.2
129.733
120.733
110.9
104.6
97.1667
85.5
80.8333
75.5667
69.8
62.7667
62.3333
55.2667
51.2333
47.8333
39.2667
37.3667
35.7
29.4667
27.0667
21.8333
22.0667
17.5667
14.7667
11.5
9.1
7.9
9775.1
9673.53
9465.33
9250.8
9016.73
8800.9
8492.2
8227.73
8036.87
7488.07
7116.03
6797.37
6277.27
5972.97
5536.87
5249.5
4953.13
4414.93
4364.07
4042.13
3803.37
3378.3
3204.1
2958.57
2757.5
2617.33
2368.2
2356.9
2215.33
1948.37
1810.13
1719.13
1635.27
1540.37
1363.23
1346.07
1230.73
1116.7
1075.9
1033.3
926.067
881.9
844.567
783.067
750.533
686.3
650.467
594.5
561.133
532.9
503.7
464.033
437.967
407.2
400.367
367.3
322.867
313.067
292.333
287.567
269.3
240.833
236.067
216.5
200.1
187.1
180.333
172.367
149.367
142
132.433
124.167
113.933
110.067
101.7
93.6667
83.1333
81.5333
74.3333
65.2
58.2667
58.3
51.9
43.4333
40.5
34.6
34.7667
31.6667
24.2
20.1
18.4667
16.7
12.2
9.2
7.73333
9822.1
9730.57
9555.73
9389.13
9244.5
9026.1
8779.97
8651.67
8278.4
8107.5
7703.57
7369.93
7018.03
6824.57
6346.5
5940.6
5379.2
5109.93
4804.53
4605.97
4292.8
3940.73
3821.73
3459.43
3253.63
2944.6
2879.43
2757.8
2517.2
2308.37
2202.43
2003.83
1812.4
1714.67
1604.6
1523.73
1397.3
1324
1246.63
1077.53
1081.4
1026.7
923.933
902.4
814.6
794.133
734.167
678.867
654.867
603.567
557.067
521.067
481.367
446.167
424.033
407
381.4
339.233
327.8
309.767
283.833
269.733
249.4
242.967
227.3
201.167
197.867
174.1
166.4
154.967
147.967
133.133
127.4
116.433
107.1
106.133
88.8333
83.2667
81.2333
66.7
65.8333
60.4
57.5667
51.4
43.8667
39.7333
34
33.4667
27.3333
24.6
20.8667
17.7
15.1
11.8667
8.56667
9841.77
9732.17
9612.27
9460.47
9414.3
9188.2
8981.2
8956.5
8685.7
8510.17
8167.4
7894.33
7813.3
7252.67
7122.07
6434.87
6043.07
5599.93
5218.17
4913.27
4776.87
4405.93
4190.37
3911.43
3744.3
3421.33
3123.1
2994.7
2738.43
2642.07
2399.3
2260.73
2120.7
2012.93
1772.53
1732
1589.1
1503.17
1400.5
1290
1174.93
1121.7
1083.2
989.567
942.467
859
809.8
762.933
699.967
657.4
630.767
576.8
542
518.233
481.867
422.6
413.533
398.733
354.533
342.033
331.067
290.467
275.7
265.433
248.833
221.767
215
201.767
183.833
173.967
155.1
143.9
136.567
126.633
117.533
106.567
104.533
89.9333
81.6667
74.9333
74.4333
61.5333
57.0333
55.9667
46.4333
41.4667
34.9667
33.1
28.7
25.7
22.7333
19.2667
14.1
11.3333
9
9846.5
9746.23
9650.5
9541.57
9426.43
9284.93
9128.83
9041.27
8949.33
8633.03
8440.67
8202.1
7814.13
7806.23
7380.13
6961.1
6828.7
6251.5
5802.03
5796.2
5022.87
4831.63
4758.6
4224.63
4145.17
3778
3482.57
3302.27
3108.4
2835.37
2706.93
2531.07
2357.3
2172.03
2024.07
1889.57
1752.77
1666.47
1524.43
1402.13
1303.27
1224.83
1154.63
1093.87
1035.07
962.7
908.1
823.967
793.2
756.433
673.267
634.467
601.567
540.567
525.233
470.033
450.7
420.333
405.433
366.833
356.4
320.867
297.4
275.3
263.067
239.333
227.1
213.3
189.533
183.5
165.167
154.133
152.367
135.333
121.633
111.033
107.333
100.367
96.9
79.9667
76.2667
70.4333
65.2333
54.8667
50.6
43.6
40.0667
35.6667
31.7333
28.3333
23.5
17.6667
16.4667
12.8667
10
9848.43
9749.6
9630.77
9556.4
9403.77
9329.4
9253.97
9067.57
8976.23
8713.33
8502.57
8309.43
7980.9
8028.83
7833.03
7388.9
6961.83
6956.6
6338.13
5874.3
5581.77
5269.07
4888.7
4481.17
4165.17
4067.9
3895.33
3535.73
3379.33
3196.77
2903.1
2837.93
2669.83
2416.4
2214.87
2123.13
2013.6
1787.5
1599.27
1558.83
1456.17
1386
1294.7
1224.73
1129.37
1019.43
949.933
919.2
797.533
785.3
739.8
686.133
642.633
590.267
556.833
515.7
482.033
439.5
426.933
402.133
367.3
346.733
324.4
302.367
288.2
263.4
237.2
222.3
210.467
198.967
181.033
172.533
154.867
137.633
134.033
126.767
111.633
100.067
96.1
88.7667
84.0333
71.0667
64.2333
60.7667
52.1667
52.0333
40.5
38.9333
33
28.7333
25.1333
18.6333
16.7667
13.3667
10
9849.77
9751.23
9655.27
9558.7
9451.07
9370
9258.4
9142.33
8924.83
8855.97
8751.43
8442.13
8448.37
7914.87
7718.13
7407.53
7400.3
6913.57
6575.93
6231.93
5705.3
5604.2
5542.9
5044.37
4633.57
4257.4
4073.77
3804.7
3530.07
3392.5
3113.47
2944.2
2637.83
2608.57
2428.9
2268.63
2104.3
2011.37
1830.93
1707.4
1582.2
1491.9
1316.7
1288.63
1204.3
1095.07
1041.8
986.233
896.767
834.667
778.567
739.267
684.033
652.867
594.833
562.733
513.6
497.167
451.667
423.267
399.1
372.4
348.6
323.467
295.2
276.567
254.933
229.533
211.6
210
184.367
173.033
158.033
150.067
141.5
131.3
127.133
111.033
101.667
90.6333
89.4333
76.4667
73.5667
63.7333
60.0667
52.7667
46.8667
38.3667
33.3667
29.4
25.1
20.6333
17.3
12.7
10.8
9850.33
9752.73
9655.03
9559.57
9463.3
9369.6
9237.77
9145.23
8996.33
8839.67
8886
8664.27
8264.7
8252.53
7977.83
7944.97
7360.8
7128.3
6517.87
6564.87
6518.03
5736
5574.77
5352.53
4952.5
4562.9
4149.97
4085.1
3843.03
3484
3295.23
3161.43
2868.3
2689.73
2611.37
2311.87
2249.6
2085.47
1936.97
1816.4
1664.83
1569.03
1447.4
1404.13
1290.83
1181.57
1146.67
1086.57
985.433
885.767
829.067
765.333
726.067
663.033
641.933
610.333
553.733
508.367
477.967
459.967
418.9
382.967
356.6
333.5
319.3
293.867
272.8
251.1
238.767
220.067
205.633
190.9
178.567
165.533
142.867
136.367
123.467
115.733
98.1
99.8667
87.5
76.4
72.1333
66.6
57.5333
50.6333
46.7333
40.7
38.3333
30.6333
25.2333
20.6333
18.2333
13.7333
11.8333
9850.7
9753.17
9655.73
9551.6
9464.27
9370.77
9206.6
9170.63
9086.73
8922.13
8808.37
8603.83
8446.03
8340.7
8210.93
7719.43
7820.57
7241.07
7104.83
6640
5990.9
5898.5
5808.8
5264.7
4932.83
4679.23
4578.1
4248.57
3867.87
3828.47
3502.53
3266.1
3090.37
2827.77
2732.3
2533.73
2362
2203.03
2082
1935.77
1786.4
1691.27
1518.5
1458.83
1349.77
1269.5
1197.3
1050.8
1031
960.567
891.5
816.633
776.867
718.067
695.367
636.2
599.233
534.033
496.2
477.933
431.6
406.633
377.867
348.4
326.033
290.5
289.3
269.067
252.5
233.433
204.2
189.1
176.733
175.167
152.733
147.2
135.2
117.033
108
98.7
91.2667
82.8
72.4667
70.8
64.8667
57.5667
49.1333
45.0333
35.3333
33.0667
27.9667
23.0333
18.6333
16
11.4667
9851.1
9753.17
9655.83
9558.9
9464.67
9370.83
9278.03
9182.6
9094.83
8970.47
8868.57
8690.4
8622.67
8382.17
8194.17
8126.93
7589.03
7306.1
7031.67
6873.5
6683.33
6570.3
5965.8
5908.4
5354.73
4921.63
4708.97
4475.7
4157.97
3890.9
3571.43
3370.2
3095.9
3060.17
2873.17
2637.57
2436.73
2275.53
2135.4
1985
1893.73
1722.9
1588.1
1486.77
1426.53
1332.63
1203.87
1161.77
1040.87
1021.87
916.167
878.833
797.733
749.233
694.733
619.567
631.167
571.333
514.4
475.633
459.6
421.5
385.9
386.367
343.433
328.533
301.167
280.533
257.567
242.333
208.167
207.1
194.633
170.2
163.667
146.133
140.067
123.333
112.933
101.967
93.9
88
79.2667
69.2333
65.4333
59
50.8333
44.0333
38.2667
29.9667
27.5333
25.4
18.9
14.8333
11.7333
9851.33
9753
9655.67
9559.8
9465.67
9370.97
9220.6
9183.6
9035.8
8972.17
8883.8
8702.23
8655.17
8354.03
8329.1
8061.5
7872.57
7728.6
7469.4
7100.87
7116.23
6397
6190.03
5929.7
5499.2
4969.6
4885.93
4494.8
4412.1
4007.2
3736.5
3487.5
3287.37
3056.17
2896.23
2750.93
2512.77
2334.17
2279.17
2088.97
1966.37
1856.57
1724
1523.27
1518.47
1370.7
1254.33
1156.03
1102.23
1050.23
970.867
936.967
835.233
796.733
756.2
664.533
664
588.233
546.567
504.733
489.667
442.867
419.733
381.667
347.767
334.833
300.2
287.767
265
254.533
222.033
201.7
195.9
180.9
166.1
152.967
141.567
135.433
115.533
105.9
95.9
90.0333
81.0667
72.1667
67.1333
59.1
51.8
42.7667
40.5667
32.8667
28.1333
25.2333
19.8667
16.8
12.7
9850.83
9753.57
9656.07
9560.3
9466.57
9372.43
9278.1
9163.53
9092.33
9003.7
8913.77
8823.3
8553.13
8431
8073.53
8091.3
7847.9
7644.93
7298.67
7190.43
6751.73
6861.7
6446.7
6228.23
5766.17
5376.23
4936
4801.67
4314.87
4187.9
3912.83
3678.5
3488.63
3204.07
2971.17
2779.7
2589.43
2459.47
2262.97
2149
1985.9
1855.9
1753.33
1682.67
1587.1
1432.27
1337.97
1181.53
1135.07
1076.2
1020.77
936.6
847.233
817.033
768.767
712.133
637.7
650.333
552.467
555.267
496.433
477.333
421.633
392.033
379.933
342.367
317.867
302.4
268.233
253.7
238.533
213.533
198.7
185.133
168.267
159.4
148.4
133.667
114.967
107.6
100.433
93.1333
82.8667
76.6333
68.8
57.6667
53.7
45.2333
40.6667
33.7
31.0667
24.8
20.8
17.3
13.2667
9851.03
9753.33
9656.17
9560.6
9464.47
9370.3
9277.27
9184.53
9093.8
8999.53
8917.37
8784.43
8567.83
8644.3
8314.27
8068.03
8026.23
7720.23
7394.53
6966.67
7109.07
6899.1
6164.73
5933.6
5781.23
5644.03
5117.33
4968.37
4599.47
4140.3
3815.17
3802.8
3558.23
3335.6
3027.63
2916.27
2729.4
2541.27
2471.9
2223.57
2045.67
1910.67
1840
1685.5
1570.27
1452.07
1405.6
1289.8
1192.27
1118.5
1040.1
962.633
925.7
836.9
803
715.067
667.133
639.567
586.067
547.367
518.967
466.1
440.133
414.267
382.333
349.467
339.833
297.967
283.8
250.5
248.067
225.067
214.067
190.4
176.167
168.967
154.567
140
124.567
119.767
106.533
93.9
88.1333
77.4
69.1333
65.5667
53.4333
46.3667
40.1667
35.8333
31.4
26.6333
20.8667
15.7
12.1333
9851.47
9753.73
9655.9
9559.43
9465.13
9370.3
9277.17
9149.23
9094.83
8975.6
8892.13
8826.93
8706.57
8599.2
8193.4
8430.37
8046.6
7904.1
7539.3
7383.73
7408.37
6494.4
6943.8
6459.4
5933.3
5341.2
5034.1
5093.1
4714
4538.03
4078.13
4011.73
3617.57
3405.17
3248.1
3020.5
2916.63
2759.5
2427.37
2348.33
2107.43
2084.5
1890.23
1827.53
1641.33
1480.93
1463.73
1335.9
1225.6
1099.67
1054.4
999.267
912.367
866.567
804.633
744.3
703.3
649.567
584.467
565.2
506.2
491.633
474.5
409.1
378.467
370.533
343.367
309.633
282.633
270.667
256.2
233.4
215.667
195.667
178.233
167.333
154.833
141.567
133.667
121.567
111.133
94.1667
86.9
81.1333
74.3
65.2333
53.9333
49.7667
42.3
37.5333
30
26.1
21.2667
16.6
12.5333
9850.93
9753.87
9656.37
9559.03
9465.87
9371.7
9277.17
9186.7
9096.63
8971.17
8911.77
8746.63
8630.27
8602
8418.2
8268.17
8350
7944.6
7836
7422.07
7017.87
7114.93
6595.1
6421.2
6278.03
5448.17
5630.3
5205.37
4964.77
4485.17
4317.4
3919.93
3691.7
3452.87
3268.23
2970.73
2862
2702.77
2577.1
2431.37
2211.13
2068.57
1933.03
1792.2
1654.8
1576.47
1425.93
1374.33
1245.4
1170.7
1100.73
1007.5
948.233
872.367
851.467
765.167
704.633
673.667
598.667
595.7
530.167
505.967
454.7
428.867
400.9
363.833
336.5
310.467
296.933
271.7
256.733
231.733
216.667
198.067
174.367
167.1
147.4
143.8
132.333
116.867
105.067
100.367
89.5333
85.4333
70.2667
67.9333
58.1
51.0667
44.3667
37.9667
32.2
27.1667
21.0333
18.0333
13.9667
9851.2
9753.53
9656.97
9560.87
9465.17
9370
9277.5
9186.73
9093.77
9004.33
8873.87
8828.6
8680.6
8654.17
8227.37
8394.8
8153.07
8157.93
7763.73
7710.57
7091.33
7349.03
6824.77
6496.87
6187.93
5883.83
5719.87
5394.6
4871.33
4594.33
4452.93
4137.07
3699.63
3502.9
3366.53
3131.03
2948.67
2833.23
2605.97
2404.17
2204.3
2098.57
2017.93
1886.57
1749.57
1633.53
1527.37
1383.13
1314.1
1243.73
1137.47
1117.67
991.967
914.767
857.2
796.433
747.067
692.3
628.467
594.4
552.7
514.733
494.3
440.267
431.8
378.467
351.6
324.833
308.033
277.333
262.233
247.933
209.4
215
186.167
175.1
163.233
138.4
138.167
117.2
114.767
102.333
88.6667
87.1333
72
68.4
54.0333
50.1333
44.3
36.6333
32.1
25.8333
24.2667
18.1333
13.1667
9850.97
9752.7
9656.13
9559.57
9465.57
9370.93
9279.4
9158.83
9095.5
9004
8917.83
8789
8732.6
8499.53
8408
8286.4
8081.1
8050.5
7751.47
7783.87
7487.23
7254
6882.97
6481.8
6265.67
6065.93
5737.13
5213.97
4901.07
5062.5
4380.87
4060.37
3764.93
3640.9
3485.4
3218.7
3020.17
2785.03
2609.87
2505.1
2308.77
2188.9
2024.3
1872.43
1841.07
1615.6
1556.17
1421.83
1337.03
1240.57
1170.03
1096.57
1032.17
901.233
876.9
803.8
752
691.433
660.033
607.533
583.1
521.533
483.667
476.8
413.7
394.233
369.867
331.667
311.7
280.033
259.833
248.867
231.1
212.967
189.033
169.767
160.633
143.3
139.033
125.533
112.4
106.467
91.1
82.4667
76.4333
68.5
60.7333
54.9333
46.5667
41.3333
32.8333
28.4
23.2333
18.4333
13.4667
9851.33
9753.2
9655.57
9559.3
9465
9370.87
9279.33
9185.43
9096.93
8971.2
8913.53
8776.1
8677.9
8614.7
8496.87
8420.9
7887.27
8003.83
7709.2
7639.83
7470.17
7089.13
6959.17
6640.03
6645.63
6439.9
5805.43
5450.1
5247.1
4808.17
4429.13
4105.73
4013.17
3775.37
3464.3
3279.97
3116.03
2880.6
2665.37
2488.83
2327.4
2189.2
2036
1916.5
1774.67
1674.77
1566.1
1497.27
1343.83
1242.6
1201.3
1089.03
1043.17
955.933
888.2
825.467
740.9
701.1
680.7
610.9
571.633
560.9
495.367
468.6
424.8
396.433
365
344.433
307.5
292.4
268.1
243.767
228.567
210.167
195.133
179.167
173.033
156.267
142.733
131.367
115.433
104.967
92.1333
81
79.1667
70.5
60.2
52.4667
45.4667
40.3
35.2667
27.9667
22.4
17.3667
13.6
9851.03
9752.37
9656.03
9560
9465.57
9369.97
9279.7
9186.83
9096.2
8963.8
8914.47
8826.77
8739.83
8607.97
8527.03
8284.97
8070
8165.97
7982.7
7404.97
7500.2
7268.3
6950.8
6645
6380.73
6055.53
5855.03
5620.5
5127.87
4715.13
4669.77
4152.7
3941.5
3674.27
3474.67
3294.5
2988.4
2895.33
2653.87
2503.37
2396.17
2245.83
2118.7
2022.53
1894.63
1714.03
1581.4
1497
1403
1344.8
1220.73
1127.77
1024.07
985.2
883.2
851.667
751
726.6
686.533
619.333
594.5
529.333
499.867
461.767
418.867
402.8
379.733
354.133
314.333
292.367
283
253.733
237.5
214.433
200.7
179.067
168.433
154.833
144.2
129.167
118.9
104.667
92.6667
81.0667
79.8667
72.9333
58.2333
53.8
46
41.9333
35.1333
28.3333
23.3667
18.3
13.2
9851.07
9753.07
9656.1
9560.77
9465.43
9372.67
9277.6
9187.93
9095.5
9004.77
8885.97
8788.77
8704.57
8619.3
8475.73
8412.03
8198.17
7998.7
7834.07
7834.13
7503.03
7205.8
7164.67
6727.57
6718.1
6183.67
5855.37
5379.77
5373.03
4926.5
4502.03
4544.7
3968.43
3891.1
3598.07
3358.77
3181.63
2986.83
2771.7
2582.63
2414.87
2330.57
2172.63
2025.87
1826.67
1715.4
1664.43
1481.33
1401.1
1360.37
1229.13
1127.73
1060.83
1007.97
941.133
854.7
805.667
776.367
689.433
630.833
590.8
552.7
521
478.633
453.933
407.667
383
345.567
335.333
299
279.733
259.933
242.6
215.933
199.033
176.533
166.7
155.267
138.067
130.9
117.267
112.067
98.0667
85.5667
76.6333
73.1667
63
53.1667
45.8333
40.2
33.1
28.4667
22.3667
19.0333
12.7667
9850.87
9752.93
9655.67
9560.03
9465.47
9369.6
9279.03
9184.73
9097.13
9005.53
8915.1
8793.63
8670.63
8589.27
8430.13
8424.27
8263.1
8013.8
7836.47
7677.5
7680
7722.77
7015.13
6488.07
6400.17
6185.03
5698.5
5516.5
5532.6
5006.83
4924.47
4444.67
4051
3782.4
3641.77
3375.23
3132.77
3005.7
2752.8
2587.07
2495.6
2290.77
2154.63
2034.03
1882.43
1773.57
1589.8
1538.4
1456.03
